# Mean Square Displacements at a function of temperature.
# Temperature [K], <(u_{1}^{x})^{2}>, <(u_{1}^{y})^{2}>, <(u_{1}^{z})^{2}>, .... [Angstrom^2]
              0     0.00156279     0.00156279     0.00617007     0.00156279     0.00156279     0.00617007
             10     0.00156279     0.00156279     0.00704069     0.00156279     0.00156279     0.00704069
             20     0.00156283     0.00156283     0.00897802     0.00156283     0.00156283     0.00897802
             30     0.00156336     0.00156336      0.0111734     0.00156336     0.00156336      0.0111734
             40     0.00156504     0.00156504      0.0134812     0.00156504     0.00156504      0.0134812
             50     0.00156815     0.00156815      0.0158524     0.00156815     0.00156815      0.0158524
             60     0.00157273     0.00157273      0.0182645     0.00157273     0.00157273      0.0182645
             70     0.00157871     0.00157871      0.0207054     0.00157871     0.00157871      0.0207054
             80     0.00158601     0.00158601      0.0231675     0.00158601     0.00158601      0.0231675
             90     0.00159452     0.00159452      0.0256463     0.00159452     0.00159452      0.0256463
            100     0.00160417     0.00160417      0.0281385     0.00160417     0.00160417      0.0281385
            110      0.0016149      0.0016149      0.0306416      0.0016149      0.0016149      0.0306416
            120     0.00162663     0.00162663      0.0331539     0.00162663     0.00162663      0.0331539
            130     0.00163933     0.00163933      0.0356742     0.00163933     0.00163933      0.0356742
            140     0.00165295     0.00165295      0.0382012     0.00165295     0.00165295      0.0382012
            150     0.00166745     0.00166745      0.0407343     0.00166745     0.00166745      0.0407343
            160     0.00168278     0.00168278      0.0432726     0.00168278     0.00168278      0.0432726
            170     0.00169892     0.00169892      0.0458156     0.00169892     0.00169892      0.0458156
            180     0.00171583     0.00171583      0.0483629     0.00171583     0.00171583      0.0483629
            190     0.00173347     0.00173347      0.0509139     0.00173347     0.00173347      0.0509139
            200     0.00175183     0.00175183      0.0534684     0.00175183     0.00175183      0.0534684
            210     0.00177085     0.00177085       0.056026     0.00177085     0.00177085       0.056026
            220     0.00179053     0.00179053      0.0585865     0.00179053     0.00179053      0.0585865
            230     0.00181082     0.00181082      0.0611495     0.00181082     0.00181082      0.0611495
            240     0.00183171     0.00183171       0.063715     0.00183171     0.00183171       0.063715
            250     0.00185317     0.00185317      0.0662827     0.00185317     0.00185317      0.0662827
            260     0.00187518     0.00187518      0.0688524     0.00187518     0.00187518      0.0688524
            270     0.00189771     0.00189771      0.0714239     0.00189771     0.00189771      0.0714239
            280     0.00192074     0.00192074      0.0739973     0.00192074     0.00192074      0.0739973
            290     0.00194426     0.00194426      0.0765722     0.00194426     0.00194426      0.0765722
            300     0.00196824     0.00196824      0.0791486     0.00196824     0.00196824      0.0791486
            310     0.00199267     0.00199267      0.0817265     0.00199267     0.00199267      0.0817265
            320     0.00201753     0.00201753      0.0843056     0.00201753     0.00201753      0.0843056
            330      0.0020428      0.0020428       0.086886      0.0020428      0.0020428       0.086886
            340     0.00206847     0.00206847      0.0894674     0.00206847     0.00206847      0.0894674
            350     0.00209453     0.00209453        0.09205     0.00209453     0.00209453        0.09205
            360     0.00212095     0.00212095      0.0946335     0.00212095     0.00212095      0.0946335
            370     0.00214773     0.00214773       0.097218     0.00214773     0.00214773       0.097218
            380     0.00217485     0.00217485      0.0998033     0.00217485     0.00217485      0.0998033
            390     0.00220231     0.00220231        0.10239     0.00220231     0.00220231        0.10239
            400     0.00223008     0.00223008       0.104976     0.00223008     0.00223008       0.104976
            410     0.00225816     0.00225816       0.107564     0.00225816     0.00225816       0.107564
            420     0.00228655     0.00228655       0.110153     0.00228655     0.00228655       0.110153
            430     0.00231521     0.00231521       0.112742     0.00231521     0.00231521       0.112742
            440     0.00234416     0.00234416       0.115331     0.00234416     0.00234416       0.115331
            450     0.00237337     0.00237337       0.117921     0.00237337     0.00237337       0.117921
            460     0.00240285     0.00240285       0.120512     0.00240285     0.00240285       0.120512
            470     0.00243257     0.00243257       0.123103     0.00243257     0.00243257       0.123103
            480     0.00246254     0.00246254       0.125695     0.00246254     0.00246254       0.125695
            490     0.00249274     0.00249274       0.128287     0.00249274     0.00249274       0.128287
            500     0.00252317     0.00252317        0.13088     0.00252317     0.00252317        0.13088
            510     0.00255381     0.00255381       0.133473     0.00255381     0.00255381       0.133473
            520     0.00258467     0.00258467       0.136067     0.00258467     0.00258467       0.136067
            530     0.00261573     0.00261573        0.13866     0.00261573     0.00261573        0.13866
            540     0.00264699     0.00264699       0.141255     0.00264699     0.00264699       0.141255
            550     0.00267845     0.00267845       0.143849     0.00267845     0.00267845       0.143849
            560     0.00271008     0.00271008       0.146444     0.00271008     0.00271008       0.146444
            570      0.0027419      0.0027419       0.149039      0.0027419      0.0027419       0.149039
            580     0.00277389     0.00277389       0.151635     0.00277389     0.00277389       0.151635
            590     0.00280605     0.00280605       0.154231     0.00280605     0.00280605       0.154231
            600     0.00283838     0.00283838       0.156827     0.00283838     0.00283838       0.156827
            610     0.00287086     0.00287086       0.159423     0.00287086     0.00287086       0.159423
            620     0.00290349     0.00290349        0.16202     0.00290349     0.00290349        0.16202
            630     0.00293627     0.00293627       0.164616     0.00293627     0.00293627       0.164616
            640      0.0029692      0.0029692       0.167213      0.0029692      0.0029692       0.167213
            650     0.00300226     0.00300226       0.169811     0.00300226     0.00300226       0.169811
            660     0.00303546     0.00303546       0.172408     0.00303546     0.00303546       0.172408
            670     0.00306879     0.00306879       0.175006     0.00306879     0.00306879       0.175006
            680     0.00310225     0.00310225       0.177604     0.00310225     0.00310225       0.177604
            690     0.00313583     0.00313583       0.180202     0.00313583     0.00313583       0.180202
            700     0.00316953     0.00316953         0.1828     0.00316953     0.00316953         0.1828
            710     0.00320334     0.00320334       0.185398     0.00320334     0.00320334       0.185398
            720     0.00323727     0.00323727       0.187997     0.00323727     0.00323727       0.187997
            730     0.00327131     0.00327131       0.190596     0.00327131     0.00327131       0.190596
            740     0.00330545     0.00330545       0.193194     0.00330545     0.00330545       0.193194
            750      0.0033397      0.0033397       0.195793      0.0033397      0.0033397       0.195793
            760     0.00337404     0.00337404       0.198393     0.00337404     0.00337404       0.198393
            770     0.00340848     0.00340848       0.200992     0.00340848     0.00340848       0.200992
            780     0.00344302     0.00344302       0.203591     0.00344302     0.00344302       0.203591
            790     0.00347765     0.00347765       0.206191     0.00347765     0.00347765       0.206191
            800     0.00351237     0.00351237       0.208791     0.00351237     0.00351237       0.208791
            810     0.00354717     0.00354717        0.21139     0.00354717     0.00354717        0.21139
            820     0.00358206     0.00358206        0.21399     0.00358206     0.00358206        0.21399
            830     0.00361703     0.00361703        0.21659     0.00361703     0.00361703        0.21659
            840     0.00365208     0.00365208        0.21919     0.00365208     0.00365208        0.21919
            850      0.0036872      0.0036872       0.221791      0.0036872      0.0036872       0.221791
            860      0.0037224      0.0037224       0.224391      0.0037224      0.0037224       0.224391
            870     0.00375768     0.00375768       0.226991     0.00375768     0.00375768       0.226991
            880     0.00379302     0.00379302       0.229592     0.00379302     0.00379302       0.229592
            890     0.00382844     0.00382844       0.232192     0.00382844     0.00382844       0.232192
            900     0.00386392     0.00386392       0.234793     0.00386392     0.00386392       0.234793
            910     0.00389947     0.00389947       0.237394     0.00389947     0.00389947       0.237394
            920     0.00393508     0.00393508       0.239995     0.00393508     0.00393508       0.239995
            930     0.00397076     0.00397076       0.242596     0.00397076     0.00397076       0.242596
            940     0.00400649     0.00400649       0.245197     0.00400649     0.00400649       0.245197
            950     0.00404229     0.00404229       0.247798     0.00404229     0.00404229       0.247798
            960     0.00407814     0.00407814       0.250399     0.00407814     0.00407814       0.250399
            970     0.00411405     0.00411405          0.253     0.00411405     0.00411405          0.253
            980     0.00415001     0.00415001       0.255602     0.00415001     0.00415001       0.255602
            990     0.00418603     0.00418603       0.258203     0.00418603     0.00418603       0.258203
           1000      0.0042221      0.0042221       0.260804      0.0042221      0.0042221       0.260804
           1010     0.00425822     0.00425822       0.263406     0.00425822     0.00425822       0.263406
           1020     0.00429438     0.00429438       0.266008     0.00429438     0.00429438       0.266008
           1030      0.0043306      0.0043306       0.268609      0.0043306      0.0043306       0.268609
           1040     0.00436687     0.00436687       0.271211     0.00436687     0.00436687       0.271211
           1050     0.00440318     0.00440318       0.273813     0.00440318     0.00440318       0.273813
           1060     0.00443953     0.00443953       0.276414     0.00443953     0.00443953       0.276414
           1070     0.00447593     0.00447593       0.279016     0.00447593     0.00447593       0.279016
           1080     0.00451238     0.00451238       0.281618     0.00451238     0.00451238       0.281618
           1090     0.00454886     0.00454886        0.28422     0.00454886     0.00454886        0.28422
           1100     0.00458539     0.00458539       0.286822     0.00458539     0.00458539       0.286822
           1110     0.00462195     0.00462195       0.289424     0.00462195     0.00462195       0.289424
           1120     0.00465856     0.00465856       0.292026     0.00465856     0.00465856       0.292026
           1130      0.0046952      0.0046952       0.294628      0.0046952      0.0046952       0.294628
           1140     0.00473188     0.00473188        0.29723     0.00473188     0.00473188        0.29723
           1150     0.00476859     0.00476859       0.299833     0.00476859     0.00476859       0.299833
           1160     0.00480535     0.00480535       0.302435     0.00480535     0.00480535       0.302435
           1170     0.00484213     0.00484213       0.305037     0.00484213     0.00484213       0.305037
           1180     0.00487895     0.00487895        0.30764     0.00487895     0.00487895        0.30764
           1190     0.00491581     0.00491581       0.310242     0.00491581     0.00491581       0.310242
           1200     0.00495269     0.00495269       0.312844     0.00495269     0.00495269       0.312844
           1210     0.00498961     0.00498961       0.315447     0.00498961     0.00498961       0.315447
           1220     0.00502656     0.00502656       0.318049     0.00502656     0.00502656       0.318049
           1230     0.00506354     0.00506354       0.320652     0.00506354     0.00506354       0.320652
           1240     0.00510055     0.00510055       0.323254     0.00510055     0.00510055       0.323254
           1250     0.00513759     0.00513759       0.325857     0.00513759     0.00513759       0.325857
           1260     0.00517466     0.00517466        0.32846     0.00517466     0.00517466        0.32846
           1270     0.00521176     0.00521176       0.331062     0.00521176     0.00521176       0.331062
           1280     0.00524888     0.00524888       0.333665     0.00524888     0.00524888       0.333665
           1290     0.00528603     0.00528603       0.336268     0.00528603     0.00528603       0.336268
           1300     0.00532321     0.00532321       0.338871     0.00532321     0.00532321       0.338871
           1310     0.00536041     0.00536041       0.341473     0.00536041     0.00536041       0.341473
           1320     0.00539764     0.00539764       0.344076     0.00539764     0.00539764       0.344076
           1330     0.00543489     0.00543489       0.346679     0.00543489     0.00543489       0.346679
           1340     0.00547217     0.00547217       0.349282     0.00547217     0.00547217       0.349282
           1350     0.00550947     0.00550947       0.351885     0.00550947     0.00550947       0.351885
           1360     0.00554679     0.00554679       0.354488     0.00554679     0.00554679       0.354488
           1370     0.00558414     0.00558414       0.357091     0.00558414     0.00558414       0.357091
           1380     0.00562151     0.00562151       0.359694     0.00562151     0.00562151       0.359694
           1390      0.0056589      0.0056589       0.362297      0.0056589      0.0056589       0.362297
           1400     0.00569631     0.00569631         0.3649     0.00569631     0.00569631         0.3649
           1410     0.00573375     0.00573375       0.367503     0.00573375     0.00573375       0.367503
           1420      0.0057712      0.0057712       0.370106      0.0057712      0.0057712       0.370106
           1430     0.00580868     0.00580868       0.372709     0.00580868     0.00580868       0.372709
           1440     0.00584617     0.00584617       0.375312     0.00584617     0.00584617       0.375312
           1450     0.00588368     0.00588368       0.377915     0.00588368     0.00588368       0.377915
           1460     0.00592122     0.00592122       0.380518     0.00592122     0.00592122       0.380518
           1470     0.00595877     0.00595877       0.383121     0.00595877     0.00595877       0.383121
           1480     0.00599634     0.00599634       0.385725     0.00599634     0.00599634       0.385725
           1490     0.00603393     0.00603393       0.388328     0.00603393     0.00603393       0.388328
           1500     0.00607154     0.00607154       0.390931     0.00607154     0.00607154       0.390931
           1510     0.00610916     0.00610916       0.393534     0.00610916     0.00610916       0.393534
           1520      0.0061468      0.0061468       0.396138      0.0061468      0.0061468       0.396138
           1530     0.00618446     0.00618446       0.398741     0.00618446     0.00618446       0.398741
           1540     0.00622214     0.00622214       0.401344     0.00622214     0.00622214       0.401344
           1550     0.00625983     0.00625983       0.403948     0.00625983     0.00625983       0.403948
           1560     0.00629753     0.00629753       0.406551     0.00629753     0.00629753       0.406551
           1570     0.00633526     0.00633526       0.409154     0.00633526     0.00633526       0.409154
           1580     0.00637299     0.00637299       0.411758     0.00637299     0.00637299       0.411758
           1590     0.00641075     0.00641075       0.414361     0.00641075     0.00641075       0.414361
           1600     0.00644852     0.00644852       0.416965     0.00644852     0.00644852       0.416965
           1610      0.0064863      0.0064863       0.419568      0.0064863      0.0064863       0.419568
           1620      0.0065241      0.0065241       0.422171      0.0065241      0.0065241       0.422171
           1630     0.00656191     0.00656191       0.424775     0.00656191     0.00656191       0.424775
           1640     0.00659973     0.00659973       0.427378     0.00659973     0.00659973       0.427378
           1650     0.00663757     0.00663757       0.429982     0.00663757     0.00663757       0.429982
           1660     0.00667542     0.00667542       0.432585     0.00667542     0.00667542       0.432585
           1670     0.00671329     0.00671329       0.435189     0.00671329     0.00671329       0.435189
           1680     0.00675117     0.00675117       0.437792     0.00675117     0.00675117       0.437792
           1690     0.00678906     0.00678906       0.440396     0.00678906     0.00678906       0.440396
           1700     0.00682696     0.00682696          0.443     0.00682696     0.00682696          0.443
           1710     0.00686488     0.00686488       0.445603     0.00686488     0.00686488       0.445603
           1720     0.00690281     0.00690281       0.448207     0.00690281     0.00690281       0.448207
           1730     0.00694075     0.00694075        0.45081     0.00694075     0.00694075        0.45081
           1740      0.0069787      0.0069787       0.453414      0.0069787      0.0069787       0.453414
           1750     0.00701666     0.00701666       0.456018     0.00701666     0.00701666       0.456018
           1760     0.00705464     0.00705464       0.458621     0.00705464     0.00705464       0.458621
           1770     0.00709263     0.00709263       0.461225     0.00709263     0.00709263       0.461225
           1780     0.00713062     0.00713062       0.463829     0.00713062     0.00713062       0.463829
           1790     0.00716863     0.00716863       0.466432     0.00716863     0.00716863       0.466432
           1800     0.00720665     0.00720665       0.469036     0.00720665     0.00720665       0.469036
           1810     0.00724468     0.00724468        0.47164     0.00724468     0.00724468        0.47164
           1820     0.00728272     0.00728272       0.474243     0.00728272     0.00728272       0.474243
           1830     0.00732077     0.00732077       0.476847     0.00732077     0.00732077       0.476847
           1840     0.00735883     0.00735883       0.479451     0.00735883     0.00735883       0.479451
           1850      0.0073969      0.0073969       0.482054      0.0073969      0.0073969       0.482054
           1860     0.00743498     0.00743498       0.484658     0.00743498     0.00743498       0.484658
           1870     0.00747307     0.00747307       0.487262     0.00747307     0.00747307       0.487262
           1880     0.00751117     0.00751117       0.489866     0.00751117     0.00751117       0.489866
           1890     0.00754928     0.00754928        0.49247     0.00754928     0.00754928        0.49247
           1900     0.00758739     0.00758739       0.495073     0.00758739     0.00758739       0.495073
           1910     0.00762552     0.00762552       0.497677     0.00762552     0.00762552       0.497677
           1920     0.00766365     0.00766365       0.500281     0.00766365     0.00766365       0.500281
           1930      0.0077018      0.0077018       0.502885      0.0077018      0.0077018       0.502885
           1940     0.00773995     0.00773995       0.505489     0.00773995     0.00773995       0.505489
           1950     0.00777811     0.00777811       0.508092     0.00777811     0.00777811       0.508092
           1960     0.00781628     0.00781628       0.510696     0.00781628     0.00781628       0.510696
           1970     0.00785446     0.00785446         0.5133     0.00785446     0.00785446         0.5133
           1980     0.00789264     0.00789264       0.515904     0.00789264     0.00789264       0.515904
           1990     0.00793084     0.00793084       0.518508     0.00793084     0.00793084       0.518508
           2000     0.00796904     0.00796904       0.521112     0.00796904     0.00796904       0.521112
